SF_Version 0.9.3
19-Aug-2024 12:36:46
Temp(K) Pressure(MPa) Temp(K) Pressure(MPa)  Points 
179.8000 807.0000 269.9755 204.0000 2108.0000
###########################################################
D H (J/kg)  D S (J/(K*kg)
41702.0752 231.9359
41724.8438 231.9556
41729.5570 231.9597
41747.6144 231.9754
41757.0463 231.9836
41770.3872 231.9952
41784.5432 232.0075
41793.1620 232.0149
41812.0475 232.0313
41815.9389 232.0347
41838.7179 232.0545
41839.5594 232.0552
41861.4990 232.0743
41867.0788 232.0792
41884.2821 232.0941
41894.6058 232.1031
41907.0673 232.1139
41922.1403 232.1270
41929.8546 232.1337
41949.6823 232.1510
41952.6440 232.1536
41975.4354 232.1734
41977.2319 232.1750
41998.2289 232.1932
42004.7891 232.1989
42021.0245 232.2131
42032.3538 232.2229
42043.8222 232.2329
42059.9261 232.2470
42066.6219 232.2528
42087.5059 232.2710
42089.4238 232.2727
42112.2276 232.2926
42115.0933 232.2951
42135.0336 232.3124
42142.6884 232.3191
42157.8417 232.3323
42170.2910 232.3432
42180.6518 232.3522
42197.9012 232.3673
42203.4640 232.3722
42225.5190 232.3914
42226.2783 232.3921
42249.0946 232.4120
42253.1445 232.4155
42271.9131 232.4319
42280.7776 232.4397
42294.7336 232.4519
42308.4183 232.4638
42317.5562 232.4718
42336.0666 232.4880
42340.3809 232.4918
42363.2077 232.5117
42363.7225 232.5122
42386.0365 232.5317
42391.3861 232.5364
42408.8674 232.5517
42419.0574 232.5606
42431.7004 232.5717
42446.7364 232.5849
42454.5355 232.5917
42474.4230 232.6091
42477.3727 232.6117
42500.2120 232.6317
42502.1172 232.6334
42523.0534 232.6517
42529.8192 232.6577
42545.8968 232.6718
42557.5289 232.6820
42568.7424 232.6918
42585.2463 232.7063
42591.5900 232.7118
42612.9713 232.7306
42614.4397 232.7319
42637.2915 232.7519
42640.7042 232.7549
42660.1454 232.7720
42668.4447 232.7793
42683.0015 232.7921
42696.1930 232.8037
42705.8596 232.8122
42723.9490 232.8281
42728.7198 232.8323
42751.5821 232.8524
42751.7128 232.8525
42774.4465 232.8725
42779.4843 232.8769
42797.3130 232.8926
42807.2637 232.9013
42820.1817 232.9127
42835.0508 232.9258
42843.0524 232.9328
42862.8456 232.9502
42865.9253 232.9530
42888.8002 232.9731
42890.6483 232.9747
42911.6773 232.9933
42918.4589 232.9992
42934.5565 233.0134
42946.2772 233.0238
42957.4378 233.0336
42974.1034 233.0483
42980.3213 233.0538
43001.9374 233.0728
43003.2069 233.0740
43026.0946 233.0941
43029.7793 233.0974
43048.9844 233.1143
43057.6290 233.1220
43071.8763 233.1346
43085.4866 233.1466
43094.7705 233.1548
43113.3521 233.1712
43117.6667 233.1750
43140.5651 233.1952
43141.2255 233.1958
43163.4656 233.2155
43169.1069 233.2205
43186.3683 233.2357
43196.9961 233.2451
43209.2731 233.2560
43224.8933 233.2698
43232.1801 233.2762
43252.7984 233.2945
43255.0892 233.2965
43278.0005 233.3168
43280.7115 233.3192
43300.9140 233.3371
43308.6326 233.3439
43323.8296 233.3574
43336.5616 233.3687
43346.7474 233.3777
43364.4987 233.3934
43369.6674 233.3980
43392.4437 233.4182
43392.5895 233.4183
43415.5139 233.4387
43420.3968 233.4430
43438.4404 233.4590
43448.3579 233.4678
43461.3691 233.4793
43476.3271 233.4926
43484.3000 233.4997
43504.3043 233.5175
43507.2331 233.5201
43530.1684 233.5404
43532.2896 233.5423
43553.1059 233.5608
43560.2831 233.5672
43576.0456 233.5812
43588.2846 233.5921
43598.9876 233.6016
43616.2942 233.6170
43621.9317 233.6220
43644.3120 233.6419
43644.8781 233.6424
43667.8267 233.6629
43672.3379 233.6669
43690.7775 233.6833
43700.3720 233.6918
43713.7306 233.7037
43728.4143 233.7168
43736.6859 233.7242
43756.4648 233.7418
43759.6435 233.7446
43782.6034 233.7651
43784.5235 233.7668
43805.5654 233.7856
43812.5904 233.7918
43828.5298 233.8061
43840.6656 233.8169
43851.4964 233.8265
43868.7490 233.8419
43874.4653 233.8470
43896.8407 233.8670
43897.4364 233.8676
43920.4099 233.8881
43924.9407 233.8921
43943.3856 233.9086
43953.0490 233.9172
43966.3636 233.9291
43981.1657 233.9424
43989.3440 233.9497
44009.2906 233.9675
44012.3266 233.9702
44035.3116 233.9908
44037.4240 233.9927
44058.2989 234.0114
44065.5658 234.0179
44081.2884 234.0319
44093.7159 234.0431
44104.2804 234.0525
44121.8744 234.0683
44127.2746 234.0731
44150.0414 234.0935
44150.2713 234.0937
44173.2702 234.1144
44178.2168 234.1188
44196.2715 234.1350
44206.4007 234.1441
44219.2751 234.1556
44234.5931 234.1694
44242.2811 234.1763
44262.7940 234.1947
44265.2895 234.1969
44288.3003 234.2176
44291.0033 234.2200
44311.3134 234.2383
44319.2213 234.2454
44334.3289 234.2589
44347.4478 234.2707
44357.3468 234.2796
44375.6828 234.2961
44380.3671 234.3003
44403.3898 234.3210
44403.9263 234.3215
44426.4149 234.3417
44432.1786 234.3469
44449.4423 234.3625
44460.4394 234.3724
44472.4722 234.3832
44488.7088 234.3978
44495.5045 234.4040
44516.9869 234.4233
44518.5393 234.4247
44541.5764 234.4455
44545.2736 234.4488
44564.6160 234.4662
44573.5690 234.4743
44587.6579 234.4870
44601.8731 234.4999
44610.7024 234.5078
44630.1859 234.5254
44633.7493 234.5286
44656.7986 234.5494
44658.5073 234.5510
44679.8503 234.5703
44686.8376 234.5766
44702.9045 234.5911
44715.1766 234.6022
44725.9612 234.6119
44743.5243 234.6278
44749.0203 234.6328
44771.8807 234.6535
44772.0819 234.6536
44795.1459 234.6745
44800.2460 234.6791
44818.2124 234.6954
44828.6201 234.7048
44841.2813 234.7163
44857.0030 234.7305
44864.3528 234.7372
44885.3946 234.7562
44887.4267 234.7581
44910.5031 234.7790
44913.7952 234.7820
44933.5820 234.7999
44942.2046 234.8078
44956.6633 234.8209
44970.6228 234.8335
44979.7472 234.8418
44999.0499 234.8593
45002.8335 234.8628
45025.9223 234.8837
45027.4859 234.8852
45049.0136 234.9047
45055.9308 234.9110
45072.1075 234.9257
45084.3846 234.9369
45095.2038 234.9467
45112.8474 234.9627
45118.3026 234.9677
45141.3190 234.9886
45141.4039 234.9887
45164.5077 235.0097
45169.7996 235.0146
45187.6141 235.0308
45198.2892 235.0405
45210.7229 235.0518
45226.7878 235.0665
45233.8343 235.0729
45255.2952 235.0924
45256.9482 235.0939
45280.0645 235.1150
45283.8118 235.1184
45303.1834 235.1361
45312.3373 235.1445
45326.3048 235.1572
45340.8718 235.1705
45349.4288 235.1783
45369.4153 235.1966
45372.5552 235.1994
45395.6842 235.2205
45397.9679 235.2226
45418.8157 235.2417
45426.5295 235.2487
45441.9497 235.2628
45455.1002 235.2748
45465.0863 235.2840
45483.6799 235.3010
45488.2254 235.3051
45511.3670 235.3263
45512.2686 235.3271
45534.5111 235.3475
45540.8666 235.3533
45557.6577 235.3687
45569.4735 235.3795
45580.8069 235.3899
45598.0896 235.4057
45603.9586 235.4111
45626.7147 235.4320
45627.1129 235.4323
45650.2697 235.4536
45655.3490 235.4582
45673.4290 235.4748
45683.9924 235.4845
45696.5908 235.4961
45712.6449 235.5108
45719.7552 235.5173
45741.3065 235.5371
45742.9221 235.5386
45766.0915 235.5599
45769.9774 235.5634
45789.2634 235.5812
45798.6574 235.5898
45812.4379 235.6025
45827.3465 235.6162
45835.6149 235.6238
45856.0447 235.6426
45858.7945 235.6451
45881.9766 235.6664
45884.7522 235.6690
45905.1612 235.6878
45913.4689 235.6954
45928.3483 235.7091
45942.1947 235.7219
45951.5379 235.7305
45970.9297 235.7484
45974.7301 235.7519
45997.9248 235.7732
45999.6739 235.7749
46021.1220 235.7946
46028.4274 235.8014
46044.3218 235.8160
46057.1900 235.8279
46067.5240 235.8374
46085.9619 235.8545
46090.7288 235.8589
46113.9362 235.8803
46114.7429 235.8810
46137.1460 235.9017
46143.5332 235.9076
46160.3583 235.9232
46172.3328 235.9343
46183.5731 235.9446
46201.1416 235.9609
46206.7905 235.9661
46229.9595 235.9875
46230.0104 235.9876
46253.2327 236.0091
46258.7868 236.0142
46276.4576 236.0306
46287.6234 236.0409
46299.6850 236.0521
46316.4691 236.0676
46322.9149 236.0736
46345.3241 236.0944
46346.1473 236.0951
46369.3822 236.1167
46374.1884 236.1211
46392.6195 236.1382
46403.0620 236.1479
46415.8594 236.1598
46431.9448 236.1747
46439.1017 236.1813
46460.8368 236.2015
46462.3466 236.2029
46485.5939 236.2245
46489.7382 236.2283
46508.8437 236.2461
46518.6489 236.2552
46532.0960 236.2677
46547.5688 236.2821
46555.3507 236.2893
46576.4979 236.3090
46578.6080 236.3109
46601.8677 236.3326
46605.4364 236.3359
46625.1298 236.3542
46634.3842 236.3628
46648.3944 236.3759
46663.3412 236.3898
46671.6615 236.3975
46692.3075 236.4167
46694.9311 236.4192
46718.2030 236.4409
46721.2832 236.4437
46741.4774 236.4626
46750.2681 236.4708
46764.7543 236.4843
46779.2623 236.4978
46788.0336 236.5060
46808.2658 236.5248
46811.3154 236.5277
46834.5996 236.5494
46837.2786 236.5519
46857.8863 236.5711
46866.3007 236.5790
46881.1753 236.5929
46895.3322 236.6061
46904.4668 236.6146
46924.3729 236.6332
46927.7608 236.6364
46951.0571 236.6582
46953.4229 236.6604
46974.3559 236.6800
46982.4823 236.6876
46997.6571 236.7018
47011.5510 236.7148
47020.9608 236.7236
47040.6290 236.7420
47044.2668 236.7454
47067.5753 236.7672
47069.7164 236.7692
47090.8862 236.7890
47098.8131 236.7964
47114.1995 236.8109
47127.9192 236.8237
47137.5152 236.8327
47157.0345 236.8510
47160.8333 236.8546
47184.1539 236.8764
47186.1593 236.8783
47207.4768 236.8983
47215.2934 236.9056
47230.8022 236.9202
47244.4369 236.9330
47254.1300 236.9421
47273.5898 236.9603
47277.4602 236.9640
47300.7928 236.9859
47302.7520 236.9877
47324.1278 237.0078
47331.9237 237.0151
47347.4652 237.0297
47361.1048 237.0426
47370.8050 237.0517
47390.2952 237.0700
47394.1472 237.0736
47417.4918 237.0956
47419.4951 237.0975
47440.8389 237.1176
47448.7044 237.1250
47464.1883 237.1395
47477.9231 237.1525
47487.5401 237.1615
47507.1513 237.1800
47510.8944 237.1835
47534.2511 237.2055
47536.3889 237.2075
47557.6101 237.2275
47565.6360 237.2351
47580.9716 237.2495
47594.8925 237.2627
47604.3354 237.2716
47624.1585 237.2903
47627.7017 237.2936
47651.0704 237.3157
47653.4340 237.3179
47674.4415 237.3377
47682.7190 237.3455
47697.8150 237.3598
47712.0135 237.3732
47721.1910 237.3819
47741.3175 237.4009
47744.5693 237.4040
47767.9501 237.4260
47770.6310 237.4286
47791.3332 237.4482
47799.9542 237.4563
47814.7188 237.4703
47829.2868 237.4840
47838.1068 237.4924
47858.6290 237.5118
47861.4972 237.5145
47884.8901 237.5367
47887.9807 237.5396
47908.2853 237.5588
47917.3421 237.5674
47931.6830 237.5810
47946.7131 237.5952
47955.0832 237.6031
47976.0936 237.6230
47978.4857 237.6253
48001.8907 237.6475
48005.4838 237.6509
48025.2981 237.6697
48034.8836 237.6788
48048.7079 237.6919
48064.2931 237.7067
48072.1202 237.7141
48093.7122 237.7346
48095.5350 237.7363
48118.9521 237.7586
48123.1410 237.7626
48142.3717 237.7808
48152.5795 237.7905
48165.7938 237.8031
48182.0277 237.8185
48189.2183 237.8253
48211.4856 237.8465
48212.6453 237.8476
48236.0747 237.8699
48240.9533 237.8745
48259.5066 237.8922
48270.4308 237.9026
48282.9410 237.9145
48299.9179 237.9306
48306.3778 237.9368
48329.4148 237.9587
48329.8171 237.9591
48353.2589 237.9814
48358.9216 237.9868
48376.7031 238.0038
48388.4382 238.0149
48400.1499 238.0261
48417.9646 238.0431
48423.5991 238.0485
48447.0508 238.0708
48447.5008 238.0713
48470.5050 238.0932
48477.0470 238.0994
48493.9617 238.1156
48506.6030 238.1277
48517.4209 238.1380
48536.1689 238.1559
48540.8827 238.1604
48564.3469 238.1828
48565.7447 238.1841
48587.8136 238.2052
48595.3305 238.2124
48611.2829 238.2277
48624.9262 238.2407
48634.7547 238.2501
48654.5319 238.2690
48658.2291 238.2725
48681.7059 238.2950
48684.1476 238.2973
48705.1853 238.3175
48713.7733 238.3257
48728.6673 238.3400
48743.4090 238.3541
48752.1518 238.3625
48773.0548 238.3825
48775.6389 238.3850
48799.1285 238.4075
48802.7106 238.4109
48822.6207 238.4300
48832.3766 238.4393
48846.1154 238.4525
48862.0527 238.4678
48869.6128 238.4751
48891.7388 238.4963
48893.1127 238.4976
48916.6153 238.5202
48921.4352 238.5248
48940.1204 238.5427
48951.1418 238.5533
48963.6281 238.5653
48980.8585 238.5819
48987.1384 238.5879
49010.5854 238.6104
49010.6514 238.6105
49034.1670 238.6331
49040.3226 238.6390
49057.6852 238.6557
49070.0701 238.6677
49081.2060 238.6784
49099.8278 238.6963
49104.7295 238.7010
49128.2557 238.7237
49129.5958 238.7250
49151.7844 238.7463
49159.3743 238.7536
49175.3159 238.7690
49189.1630 238.7823
49198.8500 238.7917
49218.9621 238.8111
49222.3868 238.8144
49245.9263 238.8371
49248.7717 238.8398
49269.4684 238.8598
49278.5917 238.8686
49293.0133 238.8825
49308.4221 238.8974
49316.5609 238.9053
49338.2629 238.9262
49340.1112 238.9280
49363.6642 238.9508
49368.1144 238.9551
49387.2199 238.9735
49397.9764 238.9839
49410.7783 238.9963
49427.8488 239.0128
49434.3396 239.0191
49457.7319 239.0417
49457.9035 239.0419
49481.4702 239.0647
49487.6256 239.0707
49505.0397 239.0875
49517.5299 239.0996
49528.6120 239.1103
49547.4449 239.1286
49552.1870 239.1332
49575.7649 239.1560
49577.3705 239.1576
49599.3455 239.1789
49607.3070 239.1866
49622.9289 239.2018
49637.2541 239.2157
49646.5152 239.2247
49667.2120 239.2448
49670.1043 239.2476
49693.6962 239.2705
49697.1807 239.2739
49717.2909 239.2934
49727.1602 239.3030
49740.8885 239.3163
49757.1506 239.3321
49764.4890 239.3393
49787.1518 239.3613
49788.0923 239.3622
49811.6985 239.3852
49817.1640 239.3905
49835.3076 239.4082
49847.1871 239.4197
49858.9196 239.4311
49877.2211 239.4490
49882.5345 239.4541
49906.1522 239.4772
49907.2661 239.4782
49929.7729 239.5002
49937.3222 239.5075
49953.3965 239.5232
49967.3893 239.5369
49977.0231 239.5463
49997.4674 239.5662
50000.6526 239.5693
50024.2850 239.5924
50027.5566 239.5956
50047.9203 239.6155
50057.6570 239.6250
50071.5587 239.6386
50087.7685 239.6544
50095.2000 239.6617
50117.8912 239.6838
50118.8443 239.6848
50142.4915 239.7079
50148.0251 239.7133
50166.1417 239.7310
50178.1702 239.7428
50189.7950 239.7542
50208.3265 239.7723
50213.4512 239.7774
50237.1105 239.8005
50238.4941 239.8019
50260.7727 239.8237
50268.6730 239.8315
50284.4380 239.8469
50298.8632 239.8611
50308.1063 239.8701
50329.0648 239.8907
50331.7776 239.8933
50355.4520 239.9166
50359.2777 239.9203
50379.1294 239.9398
50389.5021 239.9500
50402.8099 239.9631
50419.7378 239.9797
50426.4934 239.9864
50449.9849 240.0094
50450.1801 240.0096
50473.8697 240.0329
50480.2436 240.0392
50497.5625 240.0562
50510.5138 240.0690
50521.2583 240.0796
50540.7954 240.0988
50544.9573 240.1029
50568.6593 240.1262
50571.0886 240.1286
50592.3644 240.1496
50601.3934 240.1585
50616.0726 240.1730
50631.7097 240.1884
50639.7839 240.1963
50662.0376 240.2183
50663.4984 240.2197
50687.2160 240.2431
50692.3772 240.2482
50710.9367 240.2666
50722.7284 240.2782
50734.6605 240.2900
50753.0912 240.3082
50758.3875 240.3134
50782.1176 240.3369
50783.4658 240.3382
50805.8509 240.3604
50813.8521 240.3683
50829.5873 240.3838
50844.2501 240.3983
50853.3269 240.4073
50874.6599 240.4284
50877.0696 240.4308
50900.8155 240.4544
50905.0815 240.4586
50924.5646 240.4779
50935.5148 240.4887
50948.3168 240.5014
50965.9600 240.5189
50972.0723 240.5250
50995.8309 240.5486
50996.4170 240.5491
51019.5927 240.5721
51026.8859 240.5794
51043.3577 240.5957
51057.3667 240.6096
51067.1259 240.6193
51087.8594 240.6399
51090.8973 240.6430
51114.6719 240.6666
51118.3640 240.6703
51138.4497 240.6902
51148.8806 240.7006
51162.2307 240.7139
51179.4091 240.7310
51186.0150 240.7376
51209.8025 240.7613
51209.9496 240.7614
51233.5931 240.7849
51240.5022 240.7918
51257.3871 240.8087
51271.0667 240.8223
51281.1842 240.8324
51301.6433 240.8528
51304.9846 240.8561
51328.7883 240.8799
51332.2320 240.8833
51352.5951 240.9036
51362.8328 240.9138
51376.4052 240.9274
51393.4456 240.9444
51400.2186 240.9512
51424.0353 240.9750
51424.0705 240.9750
51447.8551 240.9988
51454.7077 241.0057
51471.6783 241.0226
51485.3570 241.0363
51495.5047 241.0465
51516.0184 241.0670
51519.3344 241.0703
51543.1673 241.0942
51546.6921 241.0977
51567.0035 241.1181
51577.3780 241.1285
51590.8429 241.1420
51608.0761 241.1592
51614.6857 241.1659
51638.5318 241.1898
51638.7864 241.1900
51662.3811 241.2137
51669.5092 241.2209
51686.2337 241.2377
51700.2441 241.2517
51710.0895 241.2616
51730.9913 241.2826
51733.9487 241.2856
51757.8112 241.3096
51761.7509 241.3135
51781.6769 241.3336
51792.5228 241.3445
51805.5460 241.3576
51823.3070 241.3754
51829.4184 241.3816
51853.2940 241.4056
51854.1036 241.4064
51877.1730 241.4297
51884.9127 241.4375
51901.0552 241.4537
51915.7342 241.4685
51924.9408 241.4778
51946.5680 241.4996
51948.8297 241.5019
51972.7219 241.5260
51977.4143 241.5307
51996.6173 241.5501
52008.2731 241.5619
52020.5161 241.5742
52039.1444 241.5931
52044.4183 241.5984
52068.3237 241.6225
52070.0281 241.6243
52092.2325 241.6467
52100.9244 241.6555
52116.1445 241.6709
52131.8331 241.6868
52140.0599 241.6951
52162.7544 241.7180
52163.9787 241.7193
52187.9007 241.7435
52193.6883 241.7494
52211.8261 241.7677
52224.6348 241.7807
52235.7548 241.7920
52255.5937 241.8121
52259.6868 241.8162
52283.6221 241.8405
52286.5654 241.8435
52307.5608 241.8648
52317.5496 241.8749
52331.5028 241.8891
52348.5465 241.9064
52355.4482 241.9134
52379.3969 241.9377
52379.5560 241.9379
52403.3488 241.9621
52410.5782 241.9694
52427.3042 241.9864
52441.6131 242.0010
52451.2628 242.0108
52472.6606 242.0326
52475.2249 242.0352
52499.1902 242.0596
52503.7209 242.0642
52523.1589 242.0840
52534.7939 242.0958
52547.1309 242.1084
52565.8796 242.1275
52571.1063 242.1328
52595.0850 242.1573
52596.9780 242.1592
52619.0670 242.1817
52628.0893 242.1909
52643.0523 242.2062
52659.2133 242.2227
52667.0411 242.2307
52690.3501 242.2545
52691.0331 242.2552
52715.0285 242.2797
52721.4997 242.2863
52739.0272 242.3042
52752.6622 242.3182
52763.0293 242.3288
52783.8374 242.3500
52787.0347 242.3533
52811.0435 242.3779
52815.0255 242.3819
52835.0556 242.4024
52846.2265 242.4139
52859.0710 242.4270
52877.4403 242.4459
52883.0898 242.4516
52907.1119 242.4763
52908.6670 242.4779
52931.1374 242.5009
52939.9067 242.5099
52955.1662 242.5255
52971.1592 242.5419
52979.1983 242.5502
53002.4246 242.5740
53003.2338 242.5749
53027.2726 242.5995
53033.7031 242.6061
53051.3148 242.6242
53064.9945 242.6383
53075.3603 242.6489
53096.2988 242.6705
53099.4092 242.6737
53123.4613 242.6984
53127.6161 242.7027
53147.5168 242.7232
53158.9464 242.7349
53171.5757 242.7479
53190.2897 242.7672
53195.6379 242.7727
53219.7034 242.7975
53221.6460 242.7995
53243.7723 242.8223
53253.0154 242.8318
53267.8445 242.8471
53284.3978 242.8642
53291.9200 242.8719
53315.7931 242.8966
53315.9989 242.8968
53340.0811 242.9216
53347.2017 242.9290
53364.1667 242.9465
53378.6233 242.9614
53388.2556 242.9714
53410.0579 242.9939
53412.3478 242.9963
53436.4433 243.0212
53441.5057 243.0264
53460.5422 243.0461
53472.9667 243.0589
53484.6444 243.0710
53504.4406 243.0915
53508.7499 243.0960
53532.8588 243.1209
53535.9278 243.1241
53556.9710 243.1459
53567.4281 243.1567
53581.0865 243.1709
53598.9416 243.1894
53605.2053 243.1959
53629.3275 243.2209
53630.4682 243.2221
53653.4530 243.2459
53662.0081 243.2548
53677.5818 243.2710
53693.5612 243.2875
53701.7140 243.2960
53725.1273 243.3203
53725.8495 243.3211
53749.9883 243.3462
53756.7069 243.3531
53774.1304 243.3712
53788.2996 243.3860
53798.2758 243.3963
53819.9056 243.4188
53822.4246 243.4215
53846.5767 243.4466
53851.5248 243.4517
53870.7321 243.4717
53883.1574 243.4847
53894.8908 243.4969
53914.8032 243.5176
53919.0529 243.5221
53943.2182 243.5472
53946.4623 243.5506
53967.3869 243.5724
53978.1348 243.5836
53991.5589 243.5976
54009.8206 243.6167
54015.7343 243.6229
54039.9129 243.6481
54041.5196 243.6498
54064.0949 243.6733
54073.2322 243.6829
54088.2801 243.6986
54104.9580 243.7160
54112.4687 243.7239
54136.6607 243.7492
54136.6972 243.7492
54160.8559 243.7745
54168.4499 243.7824
54185.0544 243.7998
54200.2160 243.8156
54209.2563 243.8251
54231.9954 243.8489
54233.4615 243.8504
54257.6700 243.8758
54263.7884 243.8822
54281.8818 243.9011
54295.5948 243.9155
54306.0969 243.9265
54327.4146 243.9489
54330.3154 243.9519
54354.5371 243.9773
54359.2479 243.9823
54378.7622 244.0027
54391.0948 244.0157
54402.9905 244.0282
54422.9551 244.0491
54427.2223 244.0536
54451.4573 244.0791
54454.8290 244.0826
54475.6956 244.1045
54486.7164 244.1161
54499.9372 244.1300
54518.6173 244.1497
54524.1822 244.1555
54548.4304 244.1810
54550.5318 244.1832
54572.6820 244.2065
54582.4600 244.2168
54596.9369 244.2321
