SF_Version 0.9.3
03-Sep-2024 23:12:15 
Temp(K) Pressure(MPa)
 0.1000 1071.2224
 0.1904 1071.0000
 0.5971 1070.0000
 0.6000 1069.9930
 1.0038 1069.0000
 1.1000 1068.7636
 1.4106 1068.0000
 1.6000 1067.5342
 1.8173 1067.0000
 2.1000 1066.3049
 2.2240 1066.0000
 2.6000 1065.0758
 2.6309 1065.0000
 3.0378 1064.0000
 3.1000 1063.8471
 3.4448 1063.0000
 3.6000 1062.6189
 3.8521 1062.0000
 4.1000 1061.3916
 4.2597 1061.0000
 4.6000 1060.1655
 4.6676 1060.0000
 5.0759 1059.0000
 5.1000 1058.9409
 5.4847 1058.0000
 5.6000 1057.7181
 5.8942 1057.0000
 6.1000 1056.4976
 6.3042 1056.0000
 6.6000 1055.2795
 6.7150 1055.0000
 7.1000 1054.0643
 7.1265 1054.0000
 7.5390 1053.0000
 7.6000 1052.8522
 7.9525 1052.0000
 8.1000 1051.6435
 8.3670 1051.0000
 8.6000 1050.4385
 8.7825 1050.0000
 9.1000 1049.2373
 9.1991 1049.0000
 9.6000 1048.0400
 9.6168 1048.0000
10.0359 1047.0000
10.1000 1046.8470
10.4562 1046.0000
10.6000 1045.6582
10.8778 1045.0000
11.1000 1044.4737
11.3007 1044.0000
11.6000 1043.2937
11.7249 1043.0000
12.1000 1042.1182
12.1505 1042.0000
12.5774 1041.0000
12.6000 1040.9472
13.0060 1040.0000
13.1000 1039.7807
13.4359 1039.0000
13.6000 1038.6186
13.8672 1038.0000
14.1000 1037.4611
14.2999 1037.0000
14.6000 1036.3080
14.7340 1036.0000
15.1000 1035.1593
15.1696 1035.0000
15.6000 1034.0148
15.6065 1034.0000
16.0450 1033.0000
16.1000 1032.8747
16.4850 1032.0000
16.6000 1031.7387
16.9263 1031.0000
17.1000 1030.6068
17.3690 1030.0000
17.6000 1029.4789
17.8131 1029.0000
18.1000 1028.3550
18.2585 1028.0000
18.6000 1027.2349
18.7052 1027.0000
19.1000 1026.1186
19.1533 1026.0000
19.6000 1025.0060
19.6027 1025.0000
20.0536 1024.0000
20.1000 1023.8970
20.5057 1023.0000
20.6000 1022.7916
20.9592 1022.0000
21.1000 1021.6896
21.4139 1021.0000
21.6000 1020.5910
21.8698 1020.0000
22.1000 1019.4958
22.3270 1019.0000
22.6000 1018.4038
22.7854 1018.0000
23.1000 1017.3150
23.2450 1017.0000
23.6000 1016.2293
23.7059 1016.0000
24.1000 1015.1467
24.1680 1015.0000
24.6000 1014.0672
24.6312 1014.0000
25.0957 1013.0000
25.1000 1012.9906
25.5614 1012.0000
25.6000 1011.9171
26.0283 1011.0000
26.1000 1010.8464
26.4963 1010.0000
26.6000 1009.7786
26.9655 1009.0000
27.1000 1008.7136
27.4359 1008.0000
27.6000 1007.6515
27.9075 1007.0000
28.1000 1006.5921
28.3802 1006.0000
28.6000 1005.5354
28.8540 1005.0000
29.1000 1004.4815
29.3290 1004.0000
29.6000 1003.4304
29.8052 1003.0000
30.1000 1002.3819
30.2826 1002.0000
30.6000 1001.3361
30.7611 1001.0000
31.1000 1000.2929
31.2407 1000.0000
31.6000 999.2524
31.7216 999.0000
32.1000 998.2146
32.2036 998.0000
32.6000 997.1793
32.6868 997.0000
33.1000 996.1467
33.1712 996.0000
33.6000 995.1167
33.6568 995.0000
34.1000 994.0894
34.1436 994.0000
34.6000 993.0646
34.6316 993.0000
35.1000 992.0424
35.1208 992.0000
35.6000 991.0228
35.6112 991.0000
36.1000 990.0058
36.1029 990.0000
36.5958 989.0000
36.6000 988.9914
37.0899 988.0000
37.1000 987.9796
37.5853 987.0000
37.6000 986.9704
38.0820 986.0000
38.1000 985.9637
38.5799 985.0000
38.6000 984.9596
39.0791 984.0000
39.1000 983.9582
39.5796 983.0000
39.6000 982.9593
40.0814 982.0000
40.1000 981.9629
40.5845 981.0000
40.6000 980.9692
41.0889 980.0000
41.1000 979.9781
41.5947 979.0000
41.6000 978.9895
42.1000 978.0035
42.1018 978.0000
42.6000 977.0201
42.6102 977.0000
43.1000 976.0392
43.1201 976.0000
43.6000 975.0610
43.6313 975.0000
44.1000 974.0853
44.1438 974.0000
44.6000 973.1122
44.6578 973.0000
45.1000 972.1417
45.1732 972.0000
45.6000 971.1737
45.6900 971.0000
46.1000 970.2083
46.2082 970.0000
46.6000 969.2455
46.7278 969.0000
47.1000 968.2852
47.2489 968.0000
47.6000 967.3275
47.7714 967.0000
48.1000 966.3723
48.2954 966.0000
48.6000 965.4197
48.8209 965.0000
49.1000 964.4696
49.3478 964.0000
49.6000 963.5221
49.8762 963.0000
50.1000 962.5770
50.4061 962.0000
50.6000 961.6345
50.9375 961.0000
51.1000 960.6946
51.4704 960.0000
51.6000 959.7571
52.0049 959.0000
52.1000 958.8221
52.5408 958.0000
52.6000 957.8896
53.0783 957.0000
53.1000 956.9596
53.6000 956.0321
53.6174 956.0000
54.1000 955.1071
54.1580 955.0000
54.6000 954.1845
54.7002 954.0000
55.1000 953.2643
55.2440 953.0000
55.6000 952.3465
55.7893 952.0000
56.1000 951.4312
56.3362 951.0000
56.6000 950.5183
56.8846 950.0000
57.1000 949.6078
57.4346 949.0000
57.6000 948.6996
57.9862 948.0000
58.1000 947.7938
58.5393 947.0000
58.6000 946.8903
59.0940 946.0000
59.1000 945.9892
59.6000 945.0904
59.6504 945.0000
60.1000 944.1939
60.2084 944.0000
60.6000 943.2996
60.7680 943.0000
61.1000 942.4077
61.3291 942.0000
61.6000 941.5179
61.8918 941.0000
62.1000 940.6304
62.4560 940.0000
62.6000 939.7451
63.0219 939.0000
63.1000 938.8620
63.5892 938.0000
63.6000 937.9810
64.1000 937.1022
64.1583 937.0000
64.6000 936.2255
64.7289 936.0000
65.1000 935.3509
65.3011 935.0000
65.6000 934.4784
65.8748 934.0000
66.1000 933.6080
66.4500 933.0000
66.6000 932.7396
67.0268 932.0000
67.1000 931.8732
67.6000 931.0087
67.6051 931.0000
68.1000 930.1463
68.1850 930.0000
68.6000 929.2858
68.7664 929.0000
69.1000 928.4272
69.3493 928.0000
69.6000 927.5704
69.9336 927.0000
70.1000 926.7156
70.5194 926.0000
70.6000 925.8625
71.1000 925.0113
71.1067 925.0000
71.6000 924.1619
71.6955 924.0000
72.1000 923.3142
72.2857 923.0000
72.6000 922.4683
72.8773 922.0000
73.1000 921.6240
73.4703 921.0000
73.6000 920.7814
74.0646 920.0000
74.1000 919.9405
74.6000 919.1012
74.6604 919.0000
75.1000 918.2634
75.2575 918.0000
75.6000 917.4273
75.8559 917.0000
76.1000 916.5926
76.4556 916.0000
76.6000 915.7594
77.0566 915.0000
77.1000 914.9277
77.6000 914.0975
77.6588 914.0000
78.1000 913.2686
78.2623 913.0000
78.6000 912.4411
78.8670 912.0000
79.1000 911.6150
79.4728 911.0000
79.6000 910.7902
80.0797 910.0000
80.1000 909.9666
80.6000 909.1443
80.6879 909.0000
81.1000 908.3232
81.2971 908.0000
81.6000 907.5034
81.9074 907.0000
82.1000 906.6846
82.5187 906.0000
82.6000 905.8670
83.1000 905.0505
83.1309 905.0000
83.6000 904.2350
83.7443 904.0000
84.1000 903.4205
84.3585 903.0000
84.6000 902.6071
84.9736 902.0000
85.1000 901.7946
85.5895 901.0000
85.6000 900.9830
86.1000 900.1723
86.2064 900.0000
86.6000 899.3625
86.8240 899.0000
86.4552 899.6000
86.5000 899.5274
86.6000 899.3655
86.7000 899.2036
86.7640 899.1000
86.8000 899.0418
86.9000 898.8800
87.0000 898.7182
87.0731 898.6000
87.1000 898.5565
87.2000 898.3948
87.3000 898.2332
87.3824 898.1000
87.4000 898.0715
87.5000 897.9099
87.6000 897.7483
87.6918 897.6000
87.7000 897.5868
87.8000 897.4253
87.9000 897.2638
88.0000 897.1023
88.0014 897.1000
88.1000 896.9409
88.2000 896.7795
88.3000 896.6181
88.3112 896.6000
88.4000 896.4568
88.5000 896.2955
88.6000 896.1342
88.6212 896.1000
88.7000 895.9729
88.8000 895.8117
88.9000 895.6505
88.9313 895.6000
89.0000 895.4893
89.1000 895.3282
89.2000 895.1670
89.2416 895.1000
89.3000 895.0059
89.4000 894.8449
89.5000 894.6838
89.5520 894.6000
89.6000 894.5228
89.7000 894.3618
89.8000 894.2008
89.8626 894.1000
89.9000 894.0399
90.0000 893.8789
90.1000 893.7180
90.1734 893.6000
90.2000 893.5571
90.3000 893.3963
90.4000 893.2355
90.4842 893.1000
90.5000 893.0746
90.6000 892.9139
90.7000 892.7531
90.7952 892.6000
90.8000 892.5923
90.9000 892.4316
91.0000 892.2709
91.1000 892.1102
91.1064 892.1000
91.2000 891.9496
91.3000 891.7889
91.4000 891.6283
91.4176 891.6000
91.5000 891.4677
91.6000 891.3071
91.7000 891.1466
91.7290 891.1000
91.8000 890.9860
91.9000 890.8255
92.0000 890.6650
92.0405 890.6000
92.1000 890.5045
92.2000 890.3440
92.3000 890.1836
92.3521 890.1000
92.4000 890.0231
92.5000 889.8627
92.6000 889.7023
92.6638 889.6000
92.7000 889.5419
92.8000 889.3816
92.9000 889.2212
92.9756 889.1000
93.0000 889.0609
93.1000 888.9006
93.2000 888.7403
93.2875 888.6000
93.3000 888.5800
93.4000 888.4197
93.5000 888.2594
93.5995 888.1000
93.6000 888.0992
93.7000 887.9390
93.8000 887.7787
93.9000 887.6185
93.9116 887.6000
94.0000 887.4583
94.1000 887.2982
94.2000 887.1380
94.2237 887.1000
94.3000 886.9778
94.4000 886.8177
94.5000 886.6576
94.5360 886.6000
94.6000 886.4974
94.7000 886.3373
94.8000 886.1772
94.8482 886.1000
94.9000 886.0172
95.0000 885.8571
95.1000 885.6970
95.1606 885.6000
95.2000 885.5369
95.3000 885.3769
95.4000 885.2169
95.4730 885.1000
95.5000 885.0568
95.6000 884.8968
95.7000 884.7368
95.7855 884.6000
95.8000 884.5768
95.9000 884.4168
96.0000 884.2568
96.0980 884.1000
96.1000 884.0968
96.2000 883.9368
96.3000 883.7769
96.4000 883.6169
96.4106 883.6000
96.5000 883.4570
96.6000 883.2970
96.7000 883.1371
96.7232 883.1000
96.8000 882.9771
96.9000 882.8172
97.0000 882.6573
97.0358 882.6000
97.1000 882.4973
97.2000 882.3374
97.3000 882.1775
97.3485 882.1000
97.4000 882.0176
97.5000 881.8577
97.6000 881.6978
97.6611 881.6000
97.7000 881.5379
97.8000 881.3780
97.9000 881.2181
97.9738 881.1000
98.0000 881.0582
98.1000 880.8983
98.2000 880.7384
98.2865 880.6000
98.3000 880.5785
98.4000 880.4186
98.5000 880.2587
98.5993 880.1000
98.6000 880.0988
98.7000 879.9389
98.8000 879.7790
98.9000 879.6191
98.9120 879.6000
99.0000 879.4593
99.1000 879.2994
99.2000 879.1395
99.2247 879.1000
99.3000 878.9796
99.4000 878.8197
99.5000 878.6598
99.5374 878.6000
99.6000 878.4999
99.7000 878.3400
99.8000 878.1801
99.8501 878.1000
99.9000 878.0202
100.0000 877.8602
100.1000 877.7003
100.1627 877.6000
100.2000 877.5404
100.3000 877.3805
100.4000 877.2206
100.4754 877.1000
100.5000 877.0606
100.6000 876.9007
100.7000 876.7407
100.7880 876.6000
100.8000 876.5808
100.9000 876.4208
101.0000 876.2609
101.1000 876.1009
101.1006 876.1000
101.2000 875.9409
101.3000 875.7809
101.4000 875.6209
101.4131 875.6000
101.5000 875.4609
101.6000 875.3009
101.7000 875.1409
101.7256 875.1000
101.8000 874.9809
101.9000 874.8209
102.0000 874.6608
102.0380 874.6000
102.1000 874.5008
102.2000 874.3407
102.3000 874.1807
102.3504 874.1000
102.4000 874.0206
102.5000 873.8605
102.6000 873.7004
102.6627 873.6000
102.7000 873.5403
102.8000 873.3802
102.9000 873.2200
102.9749 873.1000
103.0000 873.0599
103.1000 872.8997
103.2000 872.7396
103.2871 872.6000
103.3000 872.5794
103.4000 872.4192
103.5000 872.2590
103.5992 872.1000
103.6000 872.0987
103.7000 871.9385
103.8000 871.7783
103.9000 871.6180
103.9112 871.6000
104.0000 871.4577
104.1000 871.2974
104.2000 871.1371
104.2232 871.1000
104.3000 870.9768
104.4000 870.8165
104.5000 870.6561
104.5350 870.6000
104.6000 870.4957
104.7000 870.3354
104.8000 870.1750
104.8467 870.1000
104.9000 870.0145
105.0000 869.8541
105.1000 869.6937
105.1584 869.6000
105.2000 869.5332
105.3000 869.3727
105.4000 869.2122
105.4699 869.1000
105.5000 869.0517
105.6000 868.8911
105.7000 868.7306
105.7813 868.6000
105.8000 868.5700
105.9000 868.4094
106.0000 868.2487
106.0926 868.1000
106.1000 868.0881
106.2000 867.9274
106.3000 867.7668
106.4000 867.6060
106.4038 867.6000
106.5000 867.4453
106.6000 867.2846
106.7000 867.1238
106.7148 867.1000
106.8000 866.9630
106.9000 866.8022
107.0000 866.6414
107.0257 866.6000
107.1000 866.4805
107.2000 866.3196
107.3000 866.1587
107.3365 866.1000
107.4000 865.9978
107.5000 865.8368
107.6000 865.6759
107.6471 865.6000
107.7000 865.5149
107.8000 865.3538
107.9000 865.1928
107.9576 865.1000
108.0000 865.0317
108.1000 864.8706
108.2000 864.7095
108.2679 864.6000
108.3000 864.5483
108.4000 864.3871
108.5000 864.2259
108.5781 864.1000
108.6000 864.0647
108.7000 863.9034
108.8000 863.7421
108.8881 863.6000
108.9000 863.5808
109.0000 863.4195
109.1000 863.2581
109.1980 863.1000
109.2000 863.0967
109.3000 862.9353
109.4000 862.7738
109.5000 862.6123
109.5076 862.6000
109.6000 862.4508
109.7000 862.2892
109.8000 862.1277
109.8171 862.1000
109.9000 861.9661
110.0000 861.8044
110.1000 861.6427
110.1264 861.6000
110.2000 861.4810
110.3000 861.3193
110.4000 861.1575
110.4356 861.1000
110.5000 860.9957
110.6000 860.8339
110.7000 860.6720
110.7445 860.6000
110.8000 860.5102
110.9000 860.3482
111.0000 860.1863
111.0532 860.1000
111.1000 860.0243
111.2000 859.8622
111.3000 859.7002
111.3618 859.6000
111.4000 859.5381
111.5000 859.3759
111.6000 859.2138
111.6701 859.1000
111.7000 859.0516
111.8000 858.8893
111.9000 858.7270
111.9783 858.6000
112.0000 858.5647
112.1000 858.4024
112.2000 858.2400
112.2862 858.1000
112.3000 858.0776
112.4000 857.9151
112.5000 857.7526
112.5939 857.6000
112.6000 857.5901
112.7000 857.4275
112.8000 857.2649
112.9000 857.1023
112.9014 857.1000
113.0000 856.9396
113.1000 856.7768
113.2000 856.6141
113.2086 856.6000
113.3000 856.4513
113.4000 856.2884
113.5000 856.1255
113.5157 856.1000
113.6000 855.9626
113.7000 855.7997
113.8000 855.6366
113.8225 855.6000
113.9000 855.4736
114.0000 855.3105
114.1000 855.1474
114.1290 855.1000
114.2000 854.9842
114.3000 854.8210
114.4000 854.6577
114.4354 854.6000
114.5000 854.4944
114.6000 854.3311
114.7000 854.1677
114.7414 854.1000
114.8000 854.0043
114.9000 853.8408
115.0000 853.6773
115.0472 853.6000
115.1000 853.5137
115.2000 853.3501
115.3000 853.1865
115.3528 853.1000
115.4000 853.0228
115.5000 852.8590
115.6000 852.6952
115.6581 852.6000
115.7000 852.5314
115.8000 852.3675
115.9000 852.2036
115.9632 852.1000
116.0000 852.0396
116.1000 851.8756
116.2000 851.7115
116.2680 851.6000
116.3000 851.5474
116.4000 851.3832
116.5000 851.2190
116.5725 851.1000
116.6000 851.0548
116.7000 850.8905
116.8000 850.7261
116.8767 850.6000
116.9000 850.5617
117.0000 850.3972
117.1000 850.2327
117.1807 850.1000
117.2000 850.0682
117.3000 849.9036
117.4000 849.7389
117.4843 849.6000
117.5000 849.5742
117.6000 849.4095
117.7000 849.2447
117.7877 849.1000
117.8000 849.0798
117.9000 848.9149
118.0000 848.7499
118.0909 848.6000
118.1000 848.5849
118.2000 848.4198
118.3000 848.2547
118.3937 848.1000
118.4000 848.0895
118.5000 847.9243
118.6000 847.7590
118.6962 847.6000
118.7000 847.5937
118.8000 847.4283
118.9000 847.2629
118.9984 847.1000
119.0000 847.0974
119.1000 846.9318
119.2000 846.7662
119.3000 846.6006
119.3003 846.6000
119.4000 846.4348
119.5000 846.2691
119.6000 846.1032
119.6020 846.1000
119.7000 845.9374
119.8000 845.7714
119.9000 845.6054
119.9033 845.6000
120.0000 845.4394
120.1000 845.2733
120.2000 845.1071
120.2043 845.1000
120.3000 844.9409
120.4000 844.7746
120.5000 844.6082
120.5049 844.6000
120.6000 844.4418
120.7000 844.2754
120.8000 844.1088
120.8053 844.1000
120.9000 843.9423
121.0000 843.7756
121.1000 843.6089
121.1053 843.6000
121.2000 843.4422
121.3000 843.2753
121.4000 843.1084
121.4051 843.1000
121.5000 842.9415
121.6000 842.7745
121.7000 842.6074
121.7044 842.6000
121.8000 842.4403
121.9000 842.2731
122.0000 842.1059
122.0035 842.1000
122.1000 841.9386
122.2000 841.7712
122.3000 841.6037
122.3022 841.6000
122.4000 841.4362
122.5000 841.2687
122.6000 841.1010
122.6006 841.1000
122.7000 840.9334
122.8000 840.7656
122.8987 840.6000
122.9000 840.5978
123.0000 840.4299
123.1000 840.2619
123.1964 840.1000
123.2000 840.0939
123.3000 839.9258
123.4000 839.7577
123.4937 839.6000
123.5000 839.5895
123.6000 839.4212
123.7000 839.2529
123.7908 839.1000
123.8000 839.0844
123.9000 838.9160
124.0000 838.7474
124.0874 838.6000
124.1000 838.5788
124.2000 838.4101
124.3000 838.2414
124.3837 838.1000
124.4000 838.0726
124.5000 837.9037
124.6000 837.7347
124.6797 837.6000
124.7000 837.5657
124.8000 837.3966
124.9000 837.2274
124.9753 837.1000
125.0000 837.0582
125.1000 836.8889
125.2000 836.7195
125.2705 836.6000
125.3000 836.5501
125.4000 836.3806
125.5000 836.2110
125.5654 836.1000
125.6000 836.0413
125.7000 835.8716
125.8000 835.7018
125.8599 835.6000
125.9000 835.5319
126.0000 835.3620
126.1000 835.1920
126.1541 835.1000
126.2000 835.0219
126.3000 834.8517
126.4000 834.6815
126.4479 834.6000
126.5000 834.5112
126.6000 834.3408
126.7000 834.1704
126.7413 834.1000
126.8000 833.9998
126.9000 833.8292
127.0000 833.6586
127.0343 833.6000
127.1000 833.4878
127.2000 833.3170
127.3000 833.1461
127.3270 833.1000
127.4000 832.9751
127.5000 832.8041
127.6000 832.6329
127.6192 832.6000
127.7000 832.4617
127.8000 832.2904
127.9000 832.1191
127.9111 832.1000
128.0000 831.9477
128.1000 831.7761
128.2000 831.6045
128.2027 831.6000
128.3000 831.4329
128.4000 831.2611
128.4938 831.1000
128.5000 831.0893
128.6000 830.9174
128.7000 830.7454
128.7845 830.6000
128.8000 830.5734
128.9000 830.4012
129.0000 830.2290
129.0749 830.1000
129.1000 830.0567
129.2000 829.8844
129.3000 829.7119
129.3649 829.6000
129.4000 829.5394
129.5000 829.3667
129.6000 829.1941
129.6544 829.1000
129.7000 829.0213
129.8000 828.8484
129.9000 828.6755
129.9436 828.6000
130.0000 828.5024
130.1000 828.3293
130.2000 828.1562
130.2324 828.1000
130.3000 827.9829
130.4000 827.8095
130.5000 827.6361
130.5208 827.6000
130.6000 827.4626
130.7000 827.2890
130.8000 827.1153
130.8088 827.1000
130.9000 826.9415
131.0000 826.7677
131.0964 826.6000
131.1000 826.5937
131.2000 826.4197
131.3000 826.2456
131.3836 826.1000
131.4000 826.0714
131.5000 825.8972
131.6000 825.7228
131.6704 825.6000
131.7000 825.5484
131.8000 825.3738
131.9000 825.1992
131.9568 825.1000
132.0000 825.0245
132.1000 824.8497
132.2000 824.6748
132.2428 824.6000
132.3000 824.4999
132.4000 824.3248
132.5000 824.1497
132.5284 824.1000
132.6000 823.9745
132.7000 823.7991
132.8000 823.6237
132.8135 823.6000
132.9000 823.4482
133.0000 823.2727
133.0983 823.1000
133.1000 823.0970
133.2000 822.9212
133.3000 822.7454
133.3826 822.6000
133.4000 822.5695
133.5000 822.3934
133.6000 822.2173
133.6666 822.1000
133.7000 822.0411
133.8000 821.8648
133.9000 821.6884
133.9501 821.6000
134.0000 821.5120
134.1000 821.3354
134.2000 821.1587
134.2332 821.1000
134.3000 820.9820
134.4000 820.8051
134.5000 820.6282
134.5159 820.6000
134.6000 820.4512
134.7000 820.2741
134.7982 820.1000
134.8000 820.0968
134.9000 819.9195
135.0000 819.7421
135.0801 819.6000
135.1000 819.5646
135.2000 819.3871
135.3000 819.2094
135.3615 819.1000
135.4000 819.0316
135.5000 818.8537
135.6000 818.6758
135.6426 818.6000
135.7000 818.4977
135.8000 818.3196
135.9000 818.1413
135.9232 818.1000
136.0000 817.9630
136.1000 817.7846
136.2000 817.6060
136.2034 817.6000
136.3000 817.4274
136.4000 817.2487
136.4831 817.1000
136.5000 817.0699
136.6000 816.8909
136.7000 816.7119
136.7625 816.6000
136.8000 816.5328
136.9000 816.3536
137.0000 816.1743
137.0414 816.1000
137.1000 815.9949
137.2000 815.8154
137.3000 815.6358
137.3199 815.6000
137.4000 815.4561
137.5000 815.2763
137.5980 815.1000
137.6000 815.0964
137.7000 814.9164
137.8000 814.7363
137.8757 814.6000
137.9000 814.5561
138.0000 814.3759
138.1000 814.1955
138.1529 814.1000
138.2000 814.0150
138.3000 813.8344
138.4000 813.6537
138.4297 813.6000
138.5000 813.4729
138.6000 813.2920
138.7000 813.1110
138.7061 813.1000
138.8000 812.9299
138.9000 812.7487
138.9820 812.6000
139.0000 812.5674
139.1000 812.3860
139.2000 812.2045
139.2576 812.1000
139.3000 812.0229
139.4000 811.8412
139.5000 811.6594
139.5327 811.6000
139.6000 811.4775
139.7000 811.2955
139.8000 811.1133
139.8073 811.1000
139.9000 810.9311
140.0000 810.7488
140.0816 810.6000
140.1000 810.5664
140.2000 810.3838
140.3000 810.2012
140.3554 810.1000
140.4000 810.0184
140.5000 809.8356
140.6000 809.6526
