SF_Version 0.9.3
19-Aug-2024 12:36:46
Temp(K) Pressure(MPa) Temp(K) Pressure(MPa)  Points 
0.1000 1071.2224 270.0000 428.5270 3126.0000
###########################################################
D H (J/kg)  D S (J/(K*kg)
247693.4524 -3321.8646
247534.8387 -3321.8647
246821.5765 -3321.8620
246816.5504 -3321.8620
246108.2870 -3321.8538
245939.6506 -3321.8510
245394.9747 -3321.8397
245062.7289 -3321.8312
244681.6447 -3321.8198
244185.8276 -3321.8025
243968.3017 -3321.7940
243309.0386 -3321.7649
243254.9504 -3321.7623
242541.5954 -3321.7248
242432.5056 -3321.7185
241828.2415 -3321.6815
241556.3983 -3321.6634
241114.8938 -3321.6322
240680.9183 -3321.5993
240401.5580 -3321.5768
239806.2968 -3321.5256
239688.2408 -3321.5149
238974.9503 -3321.4459
238932.7873 -3321.4416
238261.6961 -3321.3691
238060.6577 -3321.3460
237548.4901 -3321.2836
237190.1661 -3321.2370
236835.3463 -3321.1882
236321.5779 -3321.1126
236122.2816 -3321.0815
235455.1503 -3320.9702
235409.3161 -3320.9621
234696.4734 -3320.8281
234591.1385 -3320.8070
233983.7802 -3320.6777
233729.7719 -3320.6198
233271.2665 -3320.5088
232871.2666 -3320.4053
232558.9660 -3320.3195
232015.8260 -3320.1599
231846.9154 -3320.1073
231163.6374 -3319.8803
231135.1547 -3319.8703
230423.7284 -3319.6059
230314.8813 -3319.5630
229712.6820 -3319.3120
229469.7095 -3319.2046
229002.0643 -3318.9864
228628.2651 -3318.8018
228291.9280 -3318.6268
227790.6810 -3318.3513
227582.3287 -3318.2309
226957.0779 -3317.8499
226873.3253 -3317.7964
226164.9805 -3317.3209
226127.5662 -3317.2946
225457.3598 -3316.8020
225302.2440 -3316.6824
224750.5257 -3316.2380
224481.1870 -3316.0109
224044.5438 -3315.6268
223664.4651 -3315.2777
223339.4803 -3314.9668
222852.1384 -3314.4809
222635.4018 -3314.2563
222044.2583 -3313.6191
221932.3753 -3313.4939
221240.8695 -3312.6906
221230.4684 -3312.6781
220529.7557 -3311.8072
220442.0173 -3311.6944
219830.3006 -3310.8805
219647.7286 -3310.6293
219132.1701 -3309.8968
218858.0300 -3309.4947
218435.4314 -3308.8554
218072.9439 -3308.2900
217740.1504 -3307.7553
217292.4874 -3307.0149
217046.3914 -3306.5961
216516.6737 -3305.6693
216354.2174 -3305.3772
215745.5128 -3304.2534
215663.6900 -3304.0983
214979.0128 -3302.7674
214974.8697 -3302.7591
214287.8249 -3301.3590
214217.1854 -3301.2117
213602.6057 -3299.8983
213460.0305 -3299.5867
212919.2682 -3298.3771
212707.5514 -3297.8931
212237.8675 -3296.7953
211959.7509 -3296.1317
211558.4566 -3295.1533
211216.6304 -3294.3032
210881.0871 -3293.4511
210478.1907 -3292.4085
210205.8086 -3291.6893
209744.4321 -3290.4486
209532.6693 -3289.8680
209015.3551 -3288.4246
208861.7159 -3287.9878
208290.9603 -3286.3375
208192.9940 -3286.0491
207571.2484 -3284.1885
207526.5478 -3284.0524
206862.4216 -3281.9981
206856.2208 -3281.9787
206200.6649 -3279.8866
206145.8811 -3279.7092
205541.3087 -3277.7187
205440.2260 -3277.3811
204884.3918 -3275.4952
204739.2560 -3274.9959
204229.9517 -3273.2165
204042.9718 -3272.5545
203578.0248 -3270.8834
203351.3743 -3270.0583
202928.6466 -3268.4966
202664.4649 -3267.5084
202281.8518 -3266.0567
201982.2452 -3264.9061
201637.6740 -3263.5643
201304.7172 -3262.2525
200996.1462 -3261.0202
200631.8832 -3259.5489
200357.3003 -3258.4250
199963.7451 -3256.7964
199721.1674 -3255.7794
199300.3053 -3253.9961
199087.7779 -3253.0841
198641.5660 -3251.1493
198457.1612 -3250.3397
197987.5294 -3248.2570
197829.3465 -3247.5469
197338.1975 -3245.3205
197204.3621 -3244.7064
196693.5725 -3242.3407
196582.2361 -3241.8189
196053.6560 -3239.3187
195962.9956 -3238.8849
195418.4497 -3236.2557
195346.6676 -3235.9052
194787.9547 -3233.1527
194733.2784 -3232.8803
194162.1720 -3230.0107
194122.8538 -3229.8109
193541.1024 -3226.8307
193515.4192 -3226.6976
192924.7463 -3223.6136
192910.9995 -3223.5411
192313.1040 -3220.3605
192309.6196 -3220.3418
191711.3065 -3217.1004
191706.1761 -3217.0724
191116.0827 -3213.8174
191103.9619 -3213.7500
190523.9705 -3210.4935
190506.4605 -3210.3944
189934.9933 -3207.1292
189913.6710 -3207.0064
189349.1743 -3203.7250
189325.5921 -3203.5869
188766.5366 -3200.2815
188742.2221 -3200.1368
188187.1029 -3196.7993
188163.5587 -3196.6568
187610.8960 -3193.2787
187589.5997 -3193.1477
187037.9382 -3189.7205
187020.3420 -3189.6104
186468.2520 -3186.1249
186455.7822 -3186.0457
185901.8594 -3182.4926
185895.9165 -3182.4542
185340.7408 -3178.8367
185338.7839 -3178.8239
184790.2508 -3175.1940
184779.0515 -3175.1192
184244.4407 -3171.5267
184222.6798 -3171.3791
183703.3048 -3167.8355
183669.6906 -3167.6040
183166.8370 -3164.1210
183120.1056 -3163.7943
182635.0306 -3160.3840
182573.9463 -3159.9506
182107.8786 -3156.6250
182031.2342 -3156.0731
181585.3735 -3152.8447
181491.9908 -3152.1623
181067.5073 -3149.0436
180956.2374 -3148.2187
180554.2716 -3145.2224
180423.9953 -3144.2425
180045.6576 -3141.3816
179895.2857 -3140.2342
179541.6560 -3137.5217
179370.1296 -3136.1942
179042.2571 -3133.6433
178848.5483 -3132.1228
178547.4508 -3129.7470
178330.5628 -3128.0203
178057.2264 -3125.8332
177816.1940 -3123.8872
177571.5731 -3121.9024
177305.4628 -3119.7238
177090.4795 -3117.9550
176798.3901 -3115.5304
176613.9337 -3113.9917
176294.9966 -3111.3074
176141.9238 -3110.0128
175795.3031 -3107.0551
175674.4371 -3106.0187
175299.3303 -3102.7738
175211.4608 -3102.0100
174807.0986 -3098.4638
174752.9814 -3097.9870
174318.6285 -3094.1255
174298.9854 -3093.9500
173849.4603 -3089.8996
173833.9603 -3089.7588
173404.3923 -3085.8362
173353.1217 -3085.3638
172963.7643 -3081.7599
172876.1083 -3080.9414
172527.5610 -3077.6714
172402.9400 -3076.4918
172095.7667 -3073.5708
171933.6366 -3072.0153
171668.3656 -3069.4585
171468.2178 -3067.5122
171245.3410 -3065.3350
171006.7029 -3062.9829
170826.6764 -3061.2004
170549.1111 -3058.4275
170412.3546 -3057.0551
170095.4615 -3053.8464
170002.3581 -3052.8995
169645.7726 -3049.2399
169596.6691 -3048.7337
169200.0631 -3044.6082
169195.2695 -3044.5582
168798.1457 -3040.3731
168758.4152 -3039.9506
168405.2747 -3036.1788
168320.7934 -3035.2683
168016.6368 -3031.9755
167887.2075 -3030.5616
167632.2128 -3027.7635
167457.6749 -3025.8308
167251.9828 -3023.5430
167032.2123 -3021.0763
166875.9271 -3019.3143
166610.8364 -3016.2982
166504.0252 -3015.0776
166193.5631 -3011.4970
166136.2568 -3010.8331
165780.4082 -3006.6728
165772.6008 -3006.5811
165413.0419 -3002.3218
165371.4641 -3001.8248
165057.5541 -2998.0554
164966.6852 -2996.9541
164706.1147 -2993.7820
164566.0714 -2992.0614
164358.7018 -2989.5020
164169.6363 -2987.1468
164015.2932 -2985.2155
163777.3929 -2982.2107
163675.8662 -2980.9226
163389.3538 -2977.2534
163340.3981 -2976.6236
163008.8663 -2972.3186
163005.5373 -2972.2750
162681.2541 -2968.0079
162626.0475 -2967.2746
162357.5311 -2963.6916
162250.7973 -2962.2538
162037.6733 -2959.3698
161879.7963 -2957.2130
161721.6569 -2955.0427
161513.0535 -2952.1525
161409.4576 -2950.7105
161150.5771 -2947.0725
161101.0510 -2946.3733
160796.4131 -2942.0313
160792.3833 -2941.9734
160495.5259 -2937.6846
160438.5770 -2936.8539
160198.3571 -2933.3334
160089.0581 -2931.7160
159904.8814 -2928.9778
159743.8315 -2926.5601
159615.0733 -2924.6179
159402.9011 -2921.3863
159328.9075 -2920.2539
159066.2703 -2916.1950
159046.3579 -2915.8858
158767.4043 -2911.5139
158734.0167 -2910.9857
158492.0183 -2907.1382
158406.1110 -2905.7590
158220.1705 -2902.7589
158082.5084 -2900.5159
157951.8343 -2898.3761
157763.2081 -2895.2567
157686.9833 -2893.9898
157448.2085 -2889.9818
157425.5906 -2889.6003
157167.6348 -2885.2075
157137.5762 -2884.6908
156913.0874 -2880.8117
156831.2890 -2879.3841
156661.9176 -2876.4129
156529.2897 -2874.0628
156414.0980 -2872.0111
156231.5725 -2868.7274
156169.6013 -2867.6066
155938.1302 -2863.3781
155928.4001 -2863.1994
155690.4746 -2858.7896
155649.0507 -2858.0143
155455.7914 -2854.3773
155364.2492 -2852.6371
155224.3210 -2849.9626
155083.6929 -2847.2473
154996.0355 -2845.5455
154807.3703 -2841.8453
154770.9072 -2841.1262
154548.9110 -2836.7047
154535.2999 -2836.4310
154330.0234 -2832.2811
154267.5165 -2831.0044
154114.2091 -2827.8555
154003.9228 -2825.5668
153901.4402 -2823.4279
153744.5028 -2820.1186
153691.6886 -2818.9985
153489.2397 -2814.6602
153484.9260 -2814.5673
153281.1336 -2810.1343
11049.8677 128.1766
11091.2583 128.0718
11114.8896 128.0136
11075.7647 128.1099
11080.4841 128.0981
11091.0155 128.0718
11101.5597 128.0457
11108.3183 128.0291
11112.1166 128.0198
11122.6860 127.9941
11133.2685 127.9686
11141.0137 127.9501
11143.8639 127.9433
11154.4721 127.9183
11165.0936 127.8934
11173.8528 127.8731
11175.7282 127.8687
11186.3758 127.8443
11197.0369 127.8201
11206.8375 127.7980
11207.7114 127.7960
11218.3990 127.7722
11229.1004 127.7486
11239.8154 127.7252
11239.9698 127.7248
11250.5438 127.7020
11261.2861 127.6790
11272.0423 127.6562
11273.2515 127.6537
11282.8121 127.6336
11293.5960 127.6113
11304.3940 127.5891
11306.6845 127.5844
11315.2059 127.5671
11326.0320 127.5454
11336.8724 127.5239
11340.2707 127.5172
11347.7270 127.5026
11358.5960 127.4814
11369.4796 127.4605
11374.0120 127.4519
11380.3776 127.4398
11391.2901 127.4194
11402.2174 127.3991
11407.9101 127.3886
11413.1594 127.3790
11424.1161 127.3592
11435.0878 127.3395
11441.9669 127.3273
11446.0745 127.3201
11457.0760 127.3008
11468.0927 127.2818
11476.1842 127.2680
11479.1246 127.2630
11490.1716 127.2444
11501.2340 127.2260
11510.5638 127.2107
11512.3118 127.2079
11523.4049 127.1899
11534.5136 127.1721
11545.1073 127.1554
11545.6380 127.1546
11556.7777 127.1373
11567.9333 127.1201
11579.1049 127.1032
11579.8166 127.1022
11590.2920 127.0865
11601.4951 127.0700
11612.7145 127.0538
11614.6935 127.0509
11623.9496 127.0377
11635.2009 127.0218
11646.4686 127.0062
11649.7396 127.0017
11657.7524 126.9908
11669.0526 126.9755
11680.3693 126.9605
11684.9566 126.9545
11691.7023 126.9457
11703.0519 126.9312
11714.4183 126.9168
11720.3463 126.9094
11725.8012 126.9026
11737.2009 126.8887
11748.6175 126.8749
11755.9104 126.8663
11760.0510 126.8614
11771.5013 126.8481
11782.9688 126.8350
11791.6506 126.8252
11794.4534 126.8221
11805.9550 126.8094
11817.4740 126.7969
11827.5684 126.7862
11829.0104 126.7847
11840.5639 126.7726
11852.1351 126.7608
11863.6656 126.7492
11863.7239 126.7492
11875.3299 126.7378
11886.9538 126.7266
11898.5955 126.7156
11899.9438 126.7144
11910.2548 126.7048
11921.9320 126.6943
11933.6273 126.6839
11936.4046 126.6815
11945.3404 126.6738
11957.0716 126.6639
11968.8210 126.6542
11973.0495 126.6508
11980.5885 126.6447
11992.3743 126.6354
12004.1786 126.6264
12009.8803 126.6221
12016.0011 126.6175
12027.8421 126.6089
12039.7017 126.6004
12046.8984 126.5954
12051.5799 126.5922
12063.4767 126.5842
12075.3923 126.5764
12084.1054 126.5709
12087.3267 126.5689
12099.2799 126.5615
12111.2521 126.5544
12121.5028 126.5484
12123.2434 126.5474
12135.2536 126.5407
12147.2830 126.5342
12159.0921 126.5280
12159.3317 126.5279
12171.3995 126.5218
12183.4867 126.5160
12195.5935 126.5103
12196.8747 126.5097
12207.7194 126.5049
12219.8650 126.4996
12232.0304 126.4946
12234.8522 126.4935
12244.2152 126.4898
12256.4197 126.4852
12268.6443 126.4809
12273.0260 126.4794
12280.8885 126.4767
12293.1526 126.4728
12305.4369 126.4690
12311.3974 126.4673
12317.7412 126.4655
12330.0655 126.4622
12342.4101 126.4591
12349.9679 126.4573
12354.7749 126.4562
12367.1599 126.4536
12379.5655 126.4511
12388.7388 126.4495
12391.9915 126.4489
12404.4378 126.4469
12416.9049 126.4451
12427.7115 126.4437
12429.3926 126.4435
12441.9008 126.4421
12454.4300 126.4409
12466.8872 126.4400
12466.9800 126.4400
12479.5507 126.4392
12492.1424 126.4387
12504.7554 126.4384
12506.2672 126.4384
12517.3891 126.4383
12530.0440 126.4384
12542.7203 126.4387
12545.8528 126.4388
12555.4177 126.4393
12568.1364 126.4400
12580.8767 126.4410
12585.6453 126.4414
12593.6382 126.4422
12606.4213 126.4435
12619.2260 126.4452
12625.6457 126.4460
12632.0523 126.4470
12644.9003 126.4490
12657.7701 126.4513
12665.8553 126.4528
12670.6617 126.4537
12683.5750 126.4564
12696.5104 126.4593
12706.2752 126.4616
12709.4679 126.4624
12722.4472 126.4657
12735.4487 126.4692
12746.9065 126.4725
12748.4726 126.4729
12761.5184 126.4769
12774.5866 126.4811
12787.6774 126.4854
12787.7504 126.4855
12800.7903 126.4900
12813.9258 126.4948
12827.0840 126.4998
12828.8079 126.5005
12840.2645 126.5051
12853.4678 126.5105
12866.6940 126.5162
12870.0800 126.5176
12879.9427 126.5220
12893.2143 126.5281
12906.5090 126.5344
12911.5679 126.5368
12919.8265 126.5409
12933.1670 126.5476
12946.5307 126.5546
12953.2726 126.5581
12959.9175 126.5617
12973.3274 126.5690
12986.7607 126.5766
12995.1951 126.5815
13000.2173 126.5844
13013.6972 126.5924
13027.2006 126.6006
13037.3363 126.6069
13040.7276 126.6090
13054.2780 126.6176
13067.8521 126.6265
13079.6973 126.6344
13081.4500 126.6355
13095.0714 126.6448
13108.7168 126.6543
13122.2790 126.6639
13122.3861 126.6640
13136.0791 126.6739
13149.7962 126.6840
13163.5375 126.6943
13165.0824 126.6955
13177.3026 126.7048
13191.0920 126.7156
13204.9058 126.7265
13208.1083 126.7291
13218.7436 126.7377
13232.6058 126.7491
13246.4926 126.7607
13251.3577 126.7648
13260.4036 126.7725
13274.3392 126.7845
13288.2995 126.7968
13294.8314 126.8025
13302.2843 126.8092
13316.2937 126.8218
13330.3281 126.8347
13338.5303 126.8423
13344.3872 126.8478
13358.4711 126.8611
13372.5800 126.8746
13382.4552 126.8841
13386.7139 126.8883
13400.8727 126.9022
13415.0568 126.9163
13426.6068 126.9280
13429.2661 126.9307
13443.5003 126.9452
13457.7600 126.9600
13470.9861 126.9739
13472.0451 126.9750
13486.3554 126.9902
13500.6912 127.0056
13515.0527 127.0212
13515.5936 127.0218
13529.4395 127.0370
13543.8520 127.0530
13558.2903 127.0693
13560.4302 127.0717
13572.7542 127.0857
13587.2439 127.1024
13601.7596 127.1192
13605.4965 127.1236
13616.3010 127.1363
13630.8684 127.1536
13645.4620 127.1711
13650.7933 127.1776
13660.0815 127.1888
13674.7271 127.2068
13689.3990 127.2249
13696.3211 127.2335
13704.0971 127.2432
13718.8215 127.2618
13733.5723 127.2806
13742.0805 127.2915
13748.3495 127.2995
13763.1530 127.3187
13777.9833 127.3381
13788.0722 127.3514
13792.8401 127.3577
13807.7233 127.3775
13822.6334 127.3975
13834.2968 127.4133
13837.5703 127.4178
13852.5338 127.4382
13867.5242 127.4589
13880.7546 127.4772
13882.5417 127.4797
13897.5859 127.5008
13912.6572 127.5221
13927.4464 127.5431
13927.7558 127.5436
13942.8811 127.5652
13958.0338 127.5871
13973.2139 127.6093
13974.3724 127.6110
13988.4209 127.6316
14003.6555 127.6541
14018.9175 127.6768
14021.5332 127.6808
14034.2068 127.6998
14049.5236 127.7229
14064.8681 127.7463
14068.9292 127.7525
14080.2401 127.7699
14095.6397 127.7937
14111.0672 127.8176
14116.5607 127.8262
14126.5223 127.8418
14142.0051 127.8662
14157.5160 127.8908
14164.4282 127.9019
14173.0547 127.9157
14188.6214 127.9407
14204.2161 127.9659
14212.5319 127.9794
14219.8389 127.9914
14235.4897 128.0170
14251.1689 128.0428
14260.8723 128.0589
14266.8762 128.0689
14282.6117 128.0952
14298.3756 128.1216
14309.4495 128.1403
14314.1680 128.1483
14329.9886 128.1752
14345.8378 128.2023
14358.2639 128.2237
14361.7157 128.2296
14377.6219 128.2571
14393.5568 128.2848
14407.3157 128.3089
14409.5206 128.3127
14425.5128 128.3409
14441.5340 128.3692
14456.6051 128.3960
14457.5842 128.3977
14473.6629 128.4265
14489.7708 128.4554
14505.9078 128.4846
14506.1323 128.4850
14522.0735 128.5139
14538.2684 128.5435
14554.4927 128.5733
14555.8975 128.5758
14570.7458 128.6032
14587.0284 128.6334
14603.3403 128.6638
14605.9009 128.6686
14619.6814 128.6944
14636.0519 128.7252
14652.4520 128.7562
14656.1425 128.7632
14668.8814 128.7874
14685.3404 128.8188
14701.8291 128.8504
14706.6226 128.8596
14718.3473 128.8822
14734.8951 128.9142
14751.4729 128.9464
14757.3411 128.9579
14768.0803 128.9789
14784.7175 129.0115
14801.3847 129.0443
14808.2982 129.0580
14818.0818 129.0774
14834.8087 129.1106
14851.5659 129.1441
14859.4938 129.1599
14868.3530 129.1777
14885.1702 129.2115
14902.0176 129.2456
14910.9280 129.2637
14918.8953 129.2799
14935.8031 129.3143
14952.7413 129.3490
14962.6007 129.3692
14969.7099 129.3838
14986.7087 129.4189
15003.7382 129.4542
15014.5119 129.4766
15020.7981 129.4896
15037.8884 129.5253
15055.0095 129.5612
15066.6615 129.5857
15072.1612 129.5973
15089.3434 129.6335
15106.5564 129.6700
15119.0495 129.6966
15123.8003 129.7067
15141.0748 129.7436
15158.3803 129.7807
15171.6757 129.8092
15175.7168 129.8179
15193.0840 129.8554
15210.4823 129.8931
15224.5399 129.9236
15227.9118 129.9310
15245.3721 129.9691
15262.8636 130.0074
15277.6419 130.0398
15280.3865 130.0458
15297.9403 130.0845
15315.5255 130.1234
15330.9816 130.1577
15333.1421 130.1625
15350.7898 130.2018
15368.4690 130.2413
15384.5587 130.2773
15386.1798 130.2809
15403.9217 130.3208
15421.6954 130.3609
15438.3730 130.3986
15439.5007 130.4012
15457.3373 130.4417
15475.2057 130.4823
15492.4241 130.5217
15493.1060 130.5232
15511.0376 130.5643
15529.0012 130.6056
15546.7117 130.6464
15546.9968 130.6470
15565.0238 130.6887
15583.0830 130.7306
15601.1742 130.7726
15601.2355 130.7728
15619.2970 130.8149
15637.4520 130.8573
15655.6392 130.9000
15655.9952 130.9008
15673.8582 130.9428
15692.1095 130.9859
15710.3931 131.0291
15710.9902 131.0305
15728.7086 131.0726
15747.0565 131.1162
15765.4368 131.1600
15766.2203 131.1619
15783.8491 131.2041
15802.2940 131.2483
15820.7714 131.2927
15821.6850 131.2949
15839.2809 131.3373
15857.8231 131.3821
15876.3979 131.4271
15877.3837 131.4295
15895.0050 131.4723
15913.6448 131.5177
15932.3174 131.5633
15933.3161 131.5658
15951.0223 131.6091
15969.7602 131.6551
15988.5309 131.7012
15989.4816 131.7036
16007.3340 131.7476
16026.1702 131.7942
16045.0393 131.8409
16045.8797 131.8430
16063.9410 131.8879
16082.8758 131.9350
16101.8438 131.9823
16102.5099 131.9840
16120.8444 132.0298
16139.8782 132.0776
16158.9452 132.1255
16159.3716 132.1265
16178.0450 132.1736
16197.1782 132.2219
16216.3446 132.2703
16216.4642 132.2707
16235.5440 132.3190
16254.7768 132.3679
16273.7872 132.4163
16274.0430 132.4169
16293.3422 132.4662
16312.6750 132.5156
16331.3400 132.5635
16332.0413 132.5653
16351.4407 132.6151
16370.8737 132.6651
16389.1219 132.7122
16390.3404 132.7153
16409.8403 132.7657
16429.3740 132.8163
16447.1323 132.8624
16448.9413 132.8671
16468.5421 132.9180
16488.1767 132.9692
16505.3705 133.0140
16507.8450 133.0205
16527.5469 133.0720
16547.2827 133.1238
16563.8360 133.1672
16567.0524 133.1757
16586.8557 133.2278
16606.6931 133.2800
16622.5280 133.3218
16626.5644 133.3325
16646.4695 133.3852
16666.4087 133.4380
16681.4458 133.4779
16686.3819 133.4911
16706.3890 133.5443
16726.4303 133.5977
16740.5887 133.6355
16746.5058 133.6513
16766.6152 133.7051
16786.7590 133.7590
16799.9560 133.7944
16806.9370 133.8132
16827.1491 133.8675
16847.3956 133.9221
16859.5470 133.9548
16867.6764 133.9768
16887.9913 134.0317
16908.3409 134.0868
16919.3608 134.1166
16928.7247 134.1420
16949.1429 134.1975
16969.5958 134.2531
16979.3968 134.2798
16990.0830 134.3090
17010.6047 134.3650
17031.1611 134.4212
17039.6541 134.4444
17051.7520 134.4775
17072.3774 134.5341
17093.0377 134.5908
17100.1320 134.6104
17113.7325 134.6478
17134.4620 134.7049
17155.2264 134.7622
17160.8295 134.7777
17176.0254 134.8197
17196.8592 134.8773
